File: AAC concrete dataset large ratio.csv
Idx_Sample,Ref.,Mixture Code in Ref,SiO2,Al2O3,Fe2O3,CaO,MgO,Na2O,K2O,SO3,TiO2,P2O5,SrO,Mn2O3,MnO,LOI,OPC (kg/m3),FA (kg/m3),GGBFS (kg/m3),SF (kg/m3),MK (kg/m3),Other SCM (kg/m3),Coarse aggregate (kg/m3),Fine aggregate (kg in 1m3 mix),Total aggregates (kg in 1m3 mix),Coarse Agg density (kg/m3),Fine Agg density (kg/m3),Total Na2SiO3 (kg in 1m3 of mix),Na2O (l),SiO2 (l),H2O,Total NaOH (kg in 1m3 mix),Concentration (M) NaOH,AL/B,SH/SS,Ms,Ag/B,W/B,Additional water (kg in 1m3 mix),Sp/B,Superplasticizer (kg in 1m3 mix),Total water (in solutions + additional) (kg in 1m3 mix),Initial curing time (day),Initial curing temp (C),Initial curing rest time (day),Final curing temp (C),7d CS,28d CS,1-d Cubic compressive strength (MPa),3-d Cubic compressive strength (MPa),7-d Cubic compressive strength (MPa),14-d Cubic compressive strength (MPa) ,21-d Cubic compressive strength (MPa),28-d Cubic compressive strength (MPa),56-d Cubic compressive strength (MPa),90-d Cubic compressive strength (MPa) ,180-d Cubic compressive strength (MPa),365-d Cubic compressive strength (MPa) ,1-d Cylindrical compressive strength (MPa),2-d Cylindrical compressive strength (MPa),3-d Cylindrical compressive strength (MPa),4-d Cylindrical compressive strength (MPa),5-d Cylindrical compressive strength (MPa),7-d Cylindrical compressive strength (MPa),12-d Cylindrical compressive strength (MPa),14-d Cylindrical compressive strength (MPa),21-d Cylindrical compressive strength (MPa),28-d Cylindrical compressive strength (MPa),56-d Cylindrical compressive strength (MPa) ,90-d Cylindrical compressive strength (MPa),180-d Cylindrical compressive strength (MPa) ,365-d Cylindrical compressive strength (MPa),Slump (mm),flowtable,"CO2 footprint
(kg emision per 1m3 of samples produced and cured)
[108] and [109] used"
1,[2],FA-I,53.36,26.49,10.86,1.34,0.77,0.37,0.8,1.7,1.47,1.43,0,0,,1.39,,476,,,,,1294,554,1848,,,48,14.70%,29.40%,56%,120,8,0.352941,2.5,2.0,3.9,0.2,0,0,0,108.432,1,60,0,24,13.6, ,,,,,,,,,,,,,,,,17,,,,,,,,,,,124.049
43,[2],FA-I,53.36,26.49,10.86,1.34,0.77,0.37,0.8,1.7,1.47,1.43,0,0,,1.39,,408,,,,,1294,554,1848,,,103,14.70%,29.40%,56%,41,14,0.352941,0.398058,2.0,4.5,0.2,0,0.020098,8.2,80.537,1,45,0,24,44,,,,,,,,,,,,,,,,,55,,,,,,,,,,,119.8
87,[2],FA-II,47.8,24.4,17.4,2.42,1.99,0.31,0.55,0.29,1.328,2,0,0,,1.1,,408,,,,,1309,561,1870,,,88,14.70%,29.40%,56%,35,14,0.301471,0.397727,2.0,4.6,0.2,0.0,0.020098,8.2,94.312,1,90,0,24,,15.2,,,,,,,,,,,,,,,,,,,,19,,,,,,,136.946
129,[3],Batch,53.09,24.8,8.01,2.44,1.94,0.73,3.78,0.23,0,0,0,0,,3.59,,465,,,,,1036.99,823.009,1860,,,38.3625,8.20%,27.80%,64%,217.3875,12.5,0.55,5.66667,3.4,4.0,0.3,0.0,0,0,133.246,0.833333,85,,24,,43.5,,,,,,43.5,,,,,,,,,,,,,,,,,,,,,264.83
171,[10],,61.01,20.06,7,5.48,2.26,0.82,1.27,0.28,0,0,0,0,,0,,494,,,,,858,691,1549,,,98.8,15.00%,30.00%,55%,98.8,14,0.4,1,2.0,3.1,0.2,0.0,0.0303644,15,106.812,3,60,1,60,,,,,,,,,,,,,,,47.55,,,,,,,,,,,,,,246.507
221,[13],,50.5,26.57,13.77,2.13,1.54,0.45,0.77,0.41,0,0,0,0,,0,,444,,,,,1170,630,1800,2.64,2.58,111,14.70%,29.40%,55.90%,44,14,0.349099,0.396396,2.0,4.1,0.2,0.0,0.0137387,6.1,110.869,,24,,24,36.72544,38.66488,,,,,,,,,,,,,,,,45.9068,,,,48.3311,,51.0629,,,260,,109.0296
263,[17],M1A75R35,59.7,28.36,4.57,2.1,0.83,0.04,0,0.04,1.82,0,0,0.04,,1.06,,254.54,,,,,1289.99,694.66,1984.65,2.72,2.64,99.9929,16.27%,34.64%,49%,39.9971,10,0.549972,0.4,2.1,7.8,0.3,0.0,0.0200361,5.1,76.1448,1,100,,24,44.8521,,,,44.8521,,,,,,,,,,,,,,,,,,,,,,,,134.893
305,[17],M2AL35S3,59.7,28.36,4.57,2.1,0.83,0.04,0,0.04,1.82,0,0,0.04,,1.06,,325.75,,,,,1203.99,648.35,1852.34,2.72,2.64,81.4357,16.27%,34.64%,49%,32.5743,10,0.349992,0.4,2.1,5.7,0.2,0.0,0.0199847,6.51,63.4274,1,30,,24,13.8907,,,,13.8907,,,,,,,,,,,,,,,,,,,,,,,,79.9101
347,[19],T6,50.5,26.57,13.77,2.13,1.54,0.45,0.77,0.41,0.1,1,0,0,,2.1,,428.57,,,,,,0,1800,,,102.86,14.70%,29.40%,56%,68.57,12,0.400005,0.666634,2.0,4.2,0.3,0.0,0.0142334,6.1,125.325,0.5,70,,24,21.728,22.912,,,,,,,,,,,,,,,,27.16,,,,28.64,,,,,,,136.319
387,[22],FA 70 SG 30,45.338,19.511,11.747,14.763,2.542,2.147,0,0,0,0,0,0,,0,,280,120,,,,1209,651,1860,2.68,2.59,129.3,14.70%,29.40%,56%,0,12.67,0.32325,0,2.0,4.7,0.2,0.0,0,0,72.2787,1,40,1,24,33.1852,38.22224,,,,,,,,,,,,,,,,41.4815,,,,47.7778,,50,,,,,92.70255
429,[29],GPC1,50.5,26.57,13.77,2.13,1.54,0.45,0.77,0.41,0,1,0,0,,0.6,,408,,,,,1201,647,1848,,,93,9.10%,28.90%,62%,62,14,0.379902,0.666667,3.2,4.5,0.2,4,0,0,88.94,1,60,,24,,25.6,,,,,,,,,,,,,,,,,,,,32,,,,,,,132.93
471,[30],B29,56.59,23.89,4.82,9.42,1.83,0.24,1.03,0.39,0,0,0,0,,0,,408.472,,,,,961.11,881.0175,1842.13,2.6,2.6,104.12,10.60%,26.50%,62.90%,41.6481,14,0.356863,0.4,2.5,4.5,0.3,16.0185,0.0156863,6.4074,103.68,1,46.1111,0,24,23.387,,,,,,,,,,,,29.0269,,29.1648,,,29.2338,,,,,,,,,,,118.215
513,[32],Mix 3B,45.2472,24.9564,2.43864,17.4094,5.39462,0.184472,0.718438,0,1.20387,0.248175,0,0,,0.820551,,394,259,,,,858,520,1378,2.79,2.63,81,14.92%,29.80%,55%,69,8,0.229709,0.851852,2.0,2.1,0.3,125,0,0,216.6968,,25,,24,38.25,53.2493,,,38.25,,,53.2493,,,,,,,,,,,,,,,,,,,,,93.1016
555,[35],Mix 4 T40º,42.04,33.6,4.4,12.37,0,0,0,0.4,0,0,0,0,,2.32,,427,,,,,1276.8,547.2,1824,2.74,2.67,46.93,14.70%,29.40%,56%,,14,0.109906,0,2.0,4.3,0.3,91,0,0,117.234,1,40,,24,,,37,,,,,,,,,,,,,,,,,,,,,,,,,,69.921
597,[38],(no name on Ref),30.97,17.41,1.03,36.77,9.01,0.69,0.46,1.82,0,0,0,0,,0,,,356.36,,,,1284.29,467.12,1751.41,2.62,2.75,80.18,9.00%,28.00%,63.00%,80.18,10,0.449994,1,3.1,4.9,0.3,0.0,0.009989898,3.56,100.7574,,24,,24,39.3846,43.6923,,29.8462,39.3846,49.5385,,43.6923,,,,,,,,,,,,,,,,,,,,,123.913
639,[42],Mix 9,49,31,2.8,5.4,2.5,3.76,1.17,0.3,2.1,0.9,0.1,0.1,,0.3,,424.8,,,,,1185.6,585.6,1771.2,,,95.04,14.70%,29.40%,56%,63.36,14,0.372881,0.666667,2.0,4.2,0.4,0.0,0.001977401,0.84,170.79,1,70,,24,,,,,,,,,,,,,,,44.4,,,,,,,,,,,,200,,142.817
689,[46],C1.375,56.75,27.39,7.83,1.34,0.67,0,0.68,0.55,2.12,1.58,0,0,0.02,0,,416,,,,,927,699,1626,2.58,2.5,292,14.70%,29.40%,56%,65,15,0.858173,0.222603,2.0,3.9,0.5,0.0,0,0,197.228,1,80,,24,,15.44,,,,,,,,,,,,,,,,,,,,19.3,,,,,,,224.565
754,[49],D.M16-350-1:2,61.3,29.4,3.27,1.21,0.75,0.73,1.2,0.003,0.01,0,0,0,,0.45,,350,,,,,1167,777,1944,2.65,2.63,118.09,13.70%,29.40%,57%,118.09,16,0.6748,1,2.1,5.6,0.2,0.0,0,0,76.20858,0.333333,60,,24,19.2,24.8,,13.5,19.2,,,24.8,,,,,,,,,,,,,,,,,,,150,,205.461
796,[54],M2,50.3,31.51,3.6,5.08,1.529,0.243,0.747,0.252,0,0,0,0,,5.607,,367.2,40.8,,,,1294,554,1848,,,103,8.00%,28.00%,64%,41,8,0.352941,0.398058,3.5,4.5,0.2,0.0,0.015,6.12,97.472,,25,,24,18.67,21.11,,,18.67,,,21.11,,,,,,,,,,,,,,,,,,,,,86.1712
838,[59],Mix no.13,62.3,28.1,2.1,0.5,1,0.5,1,0.4,0,0,0,0,,2.5,,400,,,,,875,875,1750,2.5,2.67,107.5,11.40%,30.10%,59%,32.5,16,0.35,0.302326,2.6,4.4,0.3,0.0,0.02625,10.5,115.8875,2,50,1,24,31.9719,35.5177,,,31.9719,,,35.5177,,,,,,,,,,,,,,,,,,,69.8592,,140.355
881,[65],13 Class C,58.05,21.59,5.1,9.42,1.86,0.92,0,0.39,0,0,0,0,,0,,408,,,,,1320,590,1910,,,83.2,10.60%,26.50%,63%,41.6,8,0.305882,0.5,2.5,4.7,0.2,0,0,0,80.6208,1,46,0,24,24.56,,,,,,,,,,,,,,,,,30.7,,,,,,,,,,,79.71948
924,[68],GPC-60D-24h,58.772,23.615,4.99,6.427,1.191,0.441,1.284,0.487,1.157,0.191,0,0.124,,1.323,,271.6,38.8,,77.6,,1221.2,620.8,1842,2.8,2.65,138.7,14.70%,29.40%,56%,55.3,12,0.5,0.398702,2.0,4.7,0.3,13.3,0,0,119.5893,1,60,,24,,40,,,,,,,,,,,,,,,,,,,,50,,,,,,,160.776
966,[72],SiO3/OH = 2.5 80ºC AL/GGBFS = 0.30,34.01,16.62,1.71,34.85,9.11,0.48,0.46,1.55,0.69,0.04,0,0,,0.35,,,560,,,,1148,668,1816,2.74,2.74,115,23.30%,20.80%,56%,81,14,0.35,0.704348,0.9,3.2,0.2,0,0,0,99.925,0.25,80,,24,31.64,37.26,,24.95,31.64,,,37.26,42.85,,,,,,,,,,,,,,,,,,,,174.924
1008,[75],Mix 2 10 M,47.26,23.0567,6.83,13.4367,3.28333,0.396667,0.396667,1.24,1.28333,0.253333,0,0.426667,,1.23333,,300,150,,,,1058.2,742.7,1800.9,,,128.571,8.00%,27.00%,65%,51.4286,10,0.4,0.4,3.4,4.0,0.2,0,0.0148889,6.7,106.106,,25,,24,19.0512,,,,,,,,,,,,,,,,,23.814,,,,,,,,,,,115.92
1050,[79],TM8,32.4,14.96,0.83,40.7,5.99,0.42,0.29,2.74,0.84,0.38,0,0.4,,0,,,500,,,,1082,583,1665,,,135,14.70%,29.40%,56%,90,14,0.45,0.666667,2.0,3.3,0.4,60,0.05,25,190.065,,25,,24,32.104,34.344,,,,,,,,,,,,,,,,40.13,,,,42.93,,,,,,,226.108
1092,[81],M9 - 1days,40.48,12.9,17.62,11.83,8.33,3.6,1.67,3.6,1.37,0,0,0,,1.6,,,,,,400,1190,640,1830,2.62,2.56,165,8.75%,28.75%,63%,60,14,0.5625,0.363636,3.3,4.6,0.3,0,0,0,129.525,1,60,1,65,,,14.9035,,,,,,,,,,,,,,,,,,,,,,,,80,,154.986
1134,[81],M2 - 28days,40.48,12.9,17.62,11.83,8.33,3.6,1.67,3.6,1.37,0,0,0,,1.6,,,,,,350,1236,666,1902,2.62,2.56,140,8.75%,28.75%,63%,70,14,0.6,0.5,3.3,5.4,0.3,0,0,0,118.3,28,60,1,65,,,28.7987,,,,,,,,,,,,,,,,,,,,,,,,82,,763.431
1176,[83],T23,53.59,28.46,8.71,4.23,1.84,0.58,1.63,0.96,0,0,0,0,,0,,350,,,,,1066.4,574.829,1641.23,2.65,2.64,137.5,16.20%,34.72%,49%,55,10,0.55,0.4,2.1,4.7,0.3,0,0.02,7,104.685,1,80,0,24,,,,48.8,,,,,,,,,,,,,,,,,,,,,,,,,149.36
1211,[85],T11,35.7935,13.8375,16.4645,25.328,2.2385,0.842,0.7115,4.7845,0,0,0,0,,0,47.7,270.3,,,,,1230,662,1892,2.54,2.58,125,16.20%,34.72%,49%,50,15,0.550314,0.4,2.1,5.9,0.3,0,0.02,6.36,85.166,1,60,,24,55.76,,,,55.76,,,,,,,,,,,,,,,,,,,,,,,,187.096
1255,[89],6C5,39.82,18.004,5.634,18.832,3.574,0.954,2.826,1.244,0.898,0.102,0,0,0.234,3.102,,219,146,,,,1145,742,1887,2.7,2.6,86,12.80%,25.50%,62%,70,7.5,0.427397,0.813953,2.0,5.2,0.3,0,0,0,102.062,,20,,24,40.3496,58.2677,9.93293,,40.3496,,,58.2677,,,,,,,,,,,,,,,,,,,54.7708,,88.7006
1297,[92],Batch A ambient,65.6,28,3,1,1,0,0,0.2,0.5,0,0,0,,0.29,,405,,,,,1283.08,587.3,1870.38,2.58,2.62,70.88,14.70%,29.40%,55.90%,70.88,14,0.350025,1,2.0,4.6,0.2,0,0,0,70.80912,,24,,24,8.33,14.66,,5.71,8.33,,,14.66,,,,,,,,,,,,,,,,,,,,,112.126
1335,[95],VA60GGBS40,40.5254,15.4336,7.8042,21.8548,8.5276,2.2918,0.8546,0.0204,1.44,0.2556,0,0,,1.32,,,153.6,,,230.4,1185.6,683.4,1869,2.7,2.6,103,11.50%,30.00%,59%,54.85,8,0.411068,0.532524,2.6,4.9,0.3,0,0.02,7.68,102.161,,25,,24,,46,,,,,,46,,,,,,,,,,,,,,,,,,,,,102.089
1377,[97],SFGC-1,43.2,24.45,0,20.06,3.795,0.295,0.905,1.41,1.475,0.11,0,0,0,0,,200,200,,,,1074,716,1790,2.53,2.34,56,8.90%,32.10%,59.00%,,,0.14,0,3.6,4.5,0.4,145,0,0,178.04,,24,1,24,,25.36,,,,,,,,,,,,,,,,,,,,31.7,,,,,,,57.187
1419,[99],FA-60 GGBS- 40 B-450 AGG/B-3.85 ALK/B-0.45 T ºC - 25,49.69,23.918,2.87,15.44,3.906,0.132,0,0.57,0,0,0,0,,3.438,,270,180,,,,972,760.5,1732.5,2.8,2.65,144.643,11.50%,30.00%,59%,57.8571,8,0.45,0.4,2.6,3.9,0.3,0,0.04,18,134.759,,25,1,30,,45.7516,,,,,,45.7516,,,,,,,,,,,,,,,,,,,83,,140.122
1461,[99],FA-50 GGBS- 50 B-360 AGG/B-5.18 ALK/B-0.55 T ºC - 60,47.085,23.265,2.525,18.3,4.57,0.11,0,0.625,0,0,0,0,,3.485,,180,180,,,,1090.8,774,1864.8,2.8,2.65,141.429,11.50%,30.00%,59%,56.5714,8,0.55,0.4,2.6,5.2,0.4,0,0.04,14.4,129.844,1,60,1,30,,53.5045,,,,,,53.5045,,,,,,,,,,,,,,,,,,,195,,154.143
1615,[101],G12,43.59,19.185,1.8775,28.005,5.28,0.2325,0.8325,0.085,0.0325,0.1675,0,0,0.09,0.23,,120,360,,,,542,794.7,1336.7,2.67,2.61,196.4,14.70%,29.40%,55.90%,43.6,4,0.5,0.221996,2.0,2.8,0.6,156.5,0,0,302.9116,,24,1,24,12.4445,12.9032,,,12.4445,,,12.9032,13.8277,16.2977,,,,,,,,,,,,,,,,,,682.027,109.6792
1648_1,[102],GPC 3 -14M,45.662,11.978,4.204,26.96,6.162,0.44,0,1.148,0,0,0,0,,0.388,,,234,,,156,1032,675,1707,2.64,2.6,150,14.70%,29.40%,55.90%,60,14,0.538462,0.4,2.0,4.4,0.3,0,0,0,110.25,,24,3,23,,,,,,,,,,,,,,,,,,,,,,,,,,,,,138.7056
1681,[103],0.60AAS15M16mmLS,31.32,13.96,15.64,25.79,2.94,2.83,2.93,3.29,0,0,0,0,,1.3,,359,,,,,1298,525,1823,2.64,2.52,108,11.67%,28.66%,60%,108,15,0.601671,1,2.5,5.1,0.3,0,0.0100279,3.6,109.8036,,25,1,24,,12.60608,,,,,,,,,,,,,,,,,,,,15.7576,,,,,20,,179.9264
1723,[106],,50.76,27.32,4.64,5.4,3.72,0.8,4.85,2,1.16,0,0,0,,0,,280,,,,,1309,561,1870,,,126,8.83%,27.64%,64%,84,12,0.75,0.666667,3.1,6.7,0.4,0,0,0,123.7278,1,80,1,24,44.1,49.1,,41.1,44.1,46,,49.1,52.8,,,,,,,,,,,,,,,,,,,,167.96
1756,[107],27,36.74,10.78,0.42,43.34,3.21,0.18,0.17,0.53,0,0,0,0,,0.6,,,400,,,,858,858,1716,2.45,2.62,142.86,13.00%,32.00%,55.00%,57.14,14,0.5,0.399972,2.5,4.3,0.4,30,0.03,12,140.9146,3,60,1,24,37.83,40.58,,,37.83,,,40.58,,,,,,,,,,,,,,,,,,,,,231.678