File: df_clean.csv
Idx_Sample,Ref.,Mixture Code in Ref,SiO2,Al2O3,Fe2O3,CaO,MgO,Na2O,K2O,SO3,TiO2,P2O5,SrO,Mn2O3,LOI,OPC (kg/m3),FA (kg/m3),GGBFS (kg/m3),SF (kg/m3),MK (kg/m3),Other SCM (kg/m3),Coarse aggregate (kg/m3),Fine aggregate (kg in 1m3 mix),Total aggregates (kg in 1m3 mix),Coarse Agg density (kg/m3),Fine Agg density (kg/m3),Total Na2SiO3 (kg in 1m3 of mix),Na2O (l),SiO2 (l),H2O,Total NaOH (kg in 1m3 mix),Concentration (M) NaOH,AL/B,SH/SS,Ms,Ag/B,W/B,Additional water (kg in 1m3 mix),Sp/B,Superplasticizer (kg in 1m3 mix),Total water (in solutions + additional) (kg in 1m3 mix),Initial curing temp (C),Final curing temp (C),7d CS,28d CS,1-d Cubic compressive strength (MPa),3-d Cubic compressive strength (MPa),7-d Cubic compressive strength (MPa),14-d Cubic compressive strength (MPa) ,21-d Cubic compressive strength (MPa),28-d Cubic compressive strength (MPa),56-d Cubic compressive strength (MPa),90-d Cubic compressive strength (MPa) ,180-d Cubic compressive strength (MPa),365-d Cubic compressive strength (MPa) ,1-d Cylindrical compressive strength (MPa),2-d Cylindrical compressive strength (MPa),3-d Cylindrical compressive strength (MPa),4-d Cylindrical compressive strength (MPa),5-d Cylindrical compressive strength (MPa),7-d Cylindrical compressive strength (MPa),12-d Cylindrical compressive strength (MPa),14-d Cylindrical compressive strength (MPa),21-d Cylindrical compressive strength (MPa),28-d Cylindrical compressive strength (MPa),56-d Cylindrical compressive strength (MPa) ,90-d Cylindrical compressive strength (MPa),180-d Cylindrical compressive strength (MPa) ,365-d Cylindrical compressive strength (MPa),Slump (mm),flowtable,"CO2 footprint
(kg emision per 1m3 of samples produced and cured)
[108] and [109] used"
99,[2],FA-II,47.8,24.4,17.4,2.42,1.99,0.31,0.55,0.29,1.328,2.0,0.0,0.0,1.1,,476.0,,,,,1294.0,554.0,1848.0,,,120.0,14.70%,29.40%,56%,48.0,8.0,0.352941,0.4,2.0,3.9,0.2,0.0,0.0,0.0,99.72,60.0,24.0,46.4,48.0,,,,,,,,,,,,,61.0,,,58.0,,64.0,,60.0,61.0,63.0,,,,,105.847
150,[7],,61.18,25.0,6.47,1.34,0.0,0.051,0.0,0.0,0.0,0.0,0.0,0.0,1.63,,400.0,,,,,1056.0,704.0,1760.0,2.64,2.43,171.42,12.65%,29.93%,57%,68.57,16.0,0.599975,0.400012,2.4,4.4,0.3,0.0,0.015,6.0,126.715,60.0,24.0,29.8,32.2,,,29.8,29.82,30.7,32.2,,,,,,,,,,,,,,,,,,,110.0,,189.537
221,[13],,50.5,26.57,13.77,2.13,1.54,0.45,0.77,0.41,0.0,0.0,0.0,0.0,0.0,,444.0,,,,,1170.0,630.0,1800.0,2.64,2.58,111.0,14.70%,29.40%,55.90%,44.0,14.0,0.349099,0.396396,2.0,4.1,0.2,0.0,0.0137387,6.1,110.869,24.0,24.0,36.72544,38.66488,,,,,,,,,,,,,,,,45.9068,,,,48.3311,,51.0629,,,260.0,,109.0296
242,[16],,34.58,13.69,0.44,40.67,7.05,0.48,0.64,0.56,0.0,0.0,0.0,0.0,1.13,,,424.0,,,,1078.0,575.0,1653.0,2.62,2.54,46.5,14.80%,29.20%,56%,13.0,12.5576,0.14033,0.27957,2.0,3.9,0.6,0.0,0.0,0.0,248.51,60.0,24.0,32.43552,40.2292,,,,,,,,,,,,,33.3811,,,40.5444,,,,50.2865,,,,,130.0,,81.6856
348,[19],T7,50.5,26.57,13.77,2.13,1.54,0.45,0.77,0.41,0.1,1.0,0.0,0.0,2.1,,424.62,,,,,,0.0,1800.0,,,90.99,14.70%,29.40%,56%,36.4,12.0,0.300009,0.400044,2.0,4.2,0.2,0.0,0.0143658,6.1,89.42141,70.0,24.0,41.832,43.912,,,,,,,,,,,,,,,,52.29,,,,54.89,,,,,,,102.459
388,[22],FA 50 SG 50,42.67,17.365,8.905,22.545,3.53,1.745,0.0,0.0,0.0,0.0,0.0,0.0,0.0,,200.0,200.0,,,,1209.0,651.0,1860.0,2.68,2.59,129.3,14.70%,29.40%,56%,0.0,12.67,0.32325,0.0,2.0,4.7,0.2,0.0,0.0,0.0,72.2787,40.0,24.0,48.29632,49.1852,,,,,,,,,,,,,,,,60.3704,,,,61.4815,,64.4444,,,,,96.54255
416,[26],M1,51.3,30.1,4.57,8.73,0.0,0.0,1.56,1.4,0.7,1.6,0.0,0.0,0.0,,400.0,,,,,950.0,850.0,1800.0,2.66,2.61,143.0,14.36%,29.43%,56%,57.0,8.0,0.5,0.398601,2.0,4.5,0.5,48.0,0.06,24.0,181.5403,70.0,24.0,49.25,51.43,46.98,,49.25,,,51.43,,,,,,,,,,,,,,,,,,,,700.0,199.5196
547,[34],M3,52.08,28.17,9.948,6.069,1.2,0.429,0.51,0.811,0.0,0.0,0.0,0.0,0.783,,315.0,35.0,,,,1081.0,483.0,1564.0,,,100.0,14.70%,29.40%,55.90%,40.0,14.0,0.4,0.4,2.0,4.5,0.2,0.0,0.0,0.0,73.5,24.0,24.0,6.41,29.52,,,6.41,,,29.52,,,,,,,,,,6.41,,,,29.52,,,,,,,89.4832
599,[38],(no name on Ref),30.97,17.41,1.03,36.77,9.01,0.69,0.46,1.82,0.0,0.0,0.0,0.0,0.0,,,356.36,,,,1284.29,467.12,1751.41,2.62,2.75,106.907,9.00%,28.00%,63.00%,53.4533,10.0,0.449994,0.5,3.1,4.9,0.3,0.0,0.009989898,3.56,101.5592,24.0,24.0,52.9231,66.1538,,65.5385,52.9231,56.0,,66.1538,,,,,,,,,,,,,,,,,,,,,113.062
668,[44],T9,37.5,6.4,0.51,34.8,8.6,0.38,0.9,2.49,0.0,0.0,0.0,0.0,0.0,,,400.0,,,,,,1800.0,2.68,2.64,50.0,15.00%,39.00%,46%,150.0,8.0,0.5,3.0,2.6,4.5,0.4,0.0,0.0,0.0,177.9,25.0,24.0,48.83,60.8,,,48.83,,,60.8,,,,,,,,,,,,,,,,,,,,,139.36
741,[49],D.M16-350-1:2,61.3,29.4,3.27,1.21,0.75,0.73,1.2,0.003,0.01,0.0,0.0,0.0,0.45,,350.0,,,,,1167.0,777.0,1944.0,2.65,2.63,118.09,13.70%,29.40%,57%,118.09,16.0,0.6748,1.0,2.1,5.6,0.2,0.0,0.0,0.0,76.20858,60.0,24.0,34.3,36.1,13.5,28.1,34.3,,,36.1,,37.5,,,,,,,,,,,,,,,,,150.0,,220.433
762,[50],M05,33.073,20.269,0.987,33.102,8.112,0.631,0.417,1.638,0.0,0.0,0.0,0.0,0.0,,,360.0,,40.0,,1024.0,524.0,1548.0,2.85,2.63,156.25,9.00%,28.00%,63%,62.86,12.0,0.547775,0.402304,3.1,3.9,0.3,0.0,0.0,0.0,131.1247,25.0,24.0,40.2539,56.1336,,,40.2539,,,56.1336,,,,,,,,,,,,,,,,,,,,,153.381
780,[52],,37.5,6.4,0.51,34.8,8.6,0.38,0.9,0.0,0.0,0.0,0.0,0.0,0.0,,,394.3,,,,,,1848.0,2.68,2.64,26.3,15.00%,39.00%,46%,131.4,8.0,0.399949,4.9962,2.6,4.7,0.4,0.0,0.0,0.0,169.05,25.0,24.0,27.4,38.1,,,27.4,,,38.1,,,,,,,,,,,,,,,,,,,,,119.364
798,[54],M4,46.9,26.73,2.8,12.84,2.967,0.189,0.581,0.196,0.0,0.0,0.0,0.0,4.361,,285.6,122.4,,,,1294.0,554.0,1848.0,,,103.0,8.00%,28.00%,64%,41.0,8.0,0.352941,0.398058,3.5,4.5,0.2,0.0,0.015,6.12,97.472,25.0,24.0,37.33,42.48,,,37.33,,,42.48,,,,,,,,,,,,,,,,,,,,,90.088
818,[58],,62.3,28.1,2.1,0.5,1.0,0.5,1.0,0.4,0.0,0.0,0.0,0.0,2.5,0.0,400.0,,,,,875.0,875.0,1750.0,2.5,2.67,100.0,11.40%,30.10%,59%,40.0,16.0,0.35,0.4,2.6,4.4,0.3,0.0,0.02625,10.5,114.2,50.0,24.0,25.2778,27.2937,,,25.2778,,,27.2937,,,,,,,,,,,,,,,,,,,90.0,,146.847
836,[59],Mix no.11,62.3,28.1,2.1,0.5,1.0,0.5,1.0,0.4,0.0,0.0,0.0,0.0,2.5,,400.0,,,,,860.0,860.0,1720.0,2.5,2.67,114.0,11.40%,30.10%,59%,46.0,16.0,0.4,0.403509,2.6,4.3,0.3,0.0,0.02625,10.5,124.55,50.0,24.0,29.5161,31.9355,,,29.5161,,,31.9355,,,,,,,,,,,,,,,,,,,120.325,,159.097
861,[62],Mix 15,40.17,13.86,15.16,9.7,9.57,3.66,1.53,0.09,0.0,0.0,0.0,0.0,4.75,,,,,,410.0,740.0,1110.0,1850.0,2.44,2.6,132.0,11.00%,29.00%,60%,53.0,14.0,0.45122,0.401515,2.6,4.5,0.5,0.0,0.03,12.3,192.9,25.0,24.0,21.1,24.1,,,21.1,,,24.1,,,,,,,,,,,,,,,,,,,,,136.3612
907,[67],GPC-SAC,58.772,23.615,4.99,6.427,1.191,0.441,1.284,0.487,1.157,0.191,0.0,0.124,1.323,,271.6,38.8,,77.6,,1221.2,620.8,1842.0,2.65,2.8,138.7,14.70%,29.40%,56%,55.3,12.0,0.5,0.398702,2.0,4.7,0.3,13.3,0.0,0.0,119.5893,23.0,24.0,12.0,33.36,,,,,,,,,,,2.9,,8.3,,,15.0,,,,41.7,,,,,,,138.317
952,[72],SiO3/OH = 0.5 60C AL/GGBFS = 0.25,34.01,16.62,1.71,34.85,9.11,0.48,0.46,1.55,0.69,0.04,0.0,0.0,0.25,,,560.0,,,,1148.0,668.0,1816.0,2.74,2.74,108.0,23.30%,20.80%,56%,32.0,14.0,0.25,0.296296,0.9,3.2,0.1,0.0,0.0,0.0,74.452,60.0,24.0,26.84,30.27,,18.65,26.84,,,30.27,36.45,,,,,,,,,,,,,,,,,,,,116.648
970,[72],SiO3/OH = 0.5 100C AL/GGBFS = 0.25,34.01,16.62,1.71,34.85,9.11,0.48,0.46,1.55,0.69,0.04,0.0,0.0,0.25,,,560.0,,,,1148.0,668.0,1816.0,2.74,2.74,108.0,23.30%,20.80%,56%,32.0,14.0,0.25,0.296296,0.9,3.2,0.1,0.0,0.0,0.0,74.452,100.0,24.0,27.75,31.24,,25.25,27.75,,,31.24,32.48,,,,,,,,,,,,,,,,,,,,123.065
988,[73],G350,40.58,15.835,3.73,31.275,1.69,0.185,0.745,1.505,0.92,0.27,0.0,0.0,0.0,175.0,175.0,,,,,1098.54,732.36,1830.9,,,68.75,16.27%,34.64%,49%,27.5,10.0,0.275,0.4,2.1,5.2,0.5,117.11,0.0,0.0,167.359,100.0,40.0,32.8523,37.1672,,,32.8523,,,37.1672,,,,,,,,,,,,,,,,,,,,,250.428
1020,[76],GPR3 25C,50.0312,10.0169,2.0902,23.8069,5.04437,0.0,0.0,0.0,0.0,0.0,0.0,0.0,0.0,,,276.0,,,118.0,1201.0,647.0,1848.0,2.87,2.6,113.0,14.70%,29.40%,56%,45.0,8.0,0.401015,0.39823,2.0,4.7,0.4,59.0,0.015,5.91,156.313,25.0,24.0,11.33,15.11,,9.41,11.33,,,15.11,,16.0,,,,,,,,,,,,,,,,,,,102.5892
1043,[79],TM1,32.4,14.96,0.83,40.7,5.99,0.42,0.29,2.74,0.84,0.38,0.0,0.4,0.0,,,400.0,,,,1208.0,650.0,1858.0,,,84.0,14.70%,29.40%,56%,56.0,10.0,0.35,0.666667,2.0,4.6,0.4,48.0,0.05,20.0,140.556,25.0,24.0,32.712,37.4,,,,,,,,,,,,,,,,40.89,,,,46.75,,,,,,,140.4544
1200,[84],G70C30,43.668,20.93,7.378,22.299,1.582,0.49,1.369,1.479,0.0,0.0,0.0,0.0,0.805,93.0,217.0,,,,,1204.0,649.0,1853.0,2.7,2.54,114.0,16.20%,34.72%,49%,57.0,10.0,0.551613,0.5,2.1,6.0,0.3,0.0,0.02,6.2,93.8712,80.0,24.0,60.9917,61.4876,,60.2479,60.9917,,,61.4876,,61.9835,,63.0,,,,,,,,,,,,,,,,,219.532
1248,[89],8C9,43.3099,20.2684,7.39701,10.5124,2.4488,0.921909,3.4598,1.07151,0.974217,0.136097,0.0,0.0,3.33667,,281.0,70.0,,,,1160.0,753.0,1913.0,2.7,2.6,83.0,12.80%,25.50%,62%,68.0,7.5,0.430199,0.819277,2.0,5.5,0.3,0.0,0.0,0.0,98.811,20.0,24.0,22.2329,38.1614,6.30955,,22.2329,,,38.1614,,,,,,,,,,,,,,,,,,,19.917,,82.8924
1266,[89],3C6,34.6159,14.6273,3.00502,31.2382,5.25188,1.00185,1.88088,1.50122,0.784347,0.051155,0.0,0.0,2.75207,,99.0,230.0,,,,1145.0,742.0,1887.0,2.7,2.6,77.0,12.80%,25.50%,62%,63.0,7.5,0.425532,0.818182,2.0,5.7,0.3,0.0,0.0,0.0,91.609,20.0,24.0,54.2978,68.0015,27.2652,,54.2978,,,68.0015,,,,,,,,,,,,,,,,,,,128.669,,85.3271
1313,[94],FA10-20,68.4595,8.72288,4.03672,11.51,2.52722,0.288,1.35774,0.455581,0.940538,0.0,0.0,0.0,1.1708,45.9,413.1,,,,,1172.0,539.0,1711.0,,,142.857,15.40%,38.50%,46%,57.1429,10.0,0.43573,0.4,2.5,3.7,0.2,0.0,0.0,0.0,100.143,20.0,24.0,13.42376,20.61016,,,,,,,,,,,,,8.47458,,,16.7797,,23.0508,,25.7627,33.3898,,,,120.0,,143.6212
1353,[96],14M2,65.6,26.53,5.49,0.31,0.76,0.36,0.23,0.31,0.0,0.0,0.0,0.0,0.41,,397.0,,,,,1277.0,547.0,1824.0,2.78,2.73,128.0,16.95%,35.06%,47.99%,51.0,14.0,0.450882,0.3984375,2.1,4.6,0.2,0.0,0.02,7.94,88.6312,60.0,27.0,34.0449,39.1011,,27.4157,34.0449,,,39.1011,,,,,,,,,,,,,,,,,,,109.841,,148.501
1371,[96],12M25,65.6,26.53,5.49,0.31,0.76,0.36,0.23,0.31,0.0,0.0,0.0,0.0,0.41,,397.0,,,,,1277.0,547.0,1824.0,2.78,2.73,128.0,16.95%,35.06%,47.99%,51.0,12.0,0.450882,0.3984375,2.1,4.6,0.2,0.0,0.02,7.94,92.7112,100.0,27.0,42.5157,40.8805,,41.0063,42.5157,,,40.8805,,,,,,,,,,,,,,,,,,,109.841,,166.3546
1394,[98],C15,50.7695,24.491,1.464,8.7425,9.235,0.6835,2.267,0.749,0.8495,0.0,0.0,0.0,0.0,,340.0,60.0,,,,1209.0,651.0,1860.0,,,93.0,15.36%,30.71%,54%,47.0,10.0,0.35,0.505376,2.0,4.7,0.2,0.0,0.01,4.0,80.7549,25.0,20.0,18.3857,29.6205,5.87575,,18.3857,25.9865,,29.6205,,,,,,,,,,,,,,,,,,,78.4336,82.1311,90.41
1607,[101],G4,43.59,19.185,1.8775,28.005,5.28,0.2325,0.8325,0.085,0.0325,0.1675,0.0,0.0,0.23,,120.0,360.0,,,,547.7,803.1,1350.8,2.67,2.61,186.7,14.70%,29.40%,55.90%,53.4,2.0,0.500208,0.28602,2.0,2.8,0.6,146.6,0.0,0.0,300.0933,24.0,24.0,9.03953,9.53802,,,9.03953,,,9.53802,9.9951,11.031,,,,,,,,,,,,,,,,,,678.426,101.077
1625,[101],G22,43.59,19.185,1.8775,28.005,5.28,0.2325,0.8325,0.085,0.0325,0.1675,0.0,0.0,0.23,,120.0,360.0,,,,535.4,785.0,1320.4,2.67,2.61,186.7,14.70%,29.40%,55.90%,53.4,8.0,0.500208,0.28602,2.0,2.8,0.6,161.4,0.0,0.0,302.0773,24.0,24.0,35.6341,43.6449,,,35.6341,,,43.6449,44.8929,46.1388,,,,,,,,,,,,,,,,,,647.635,125.473
1643,[102],GPC 4 -12M,50.608,10.912,5.846,22.18,4.518,0.51,0.0,1.182,0.0,0.0,0.0,0.0,0.422,,,156.0,,,234.0,1032.0,675.0,1707.0,2.64,2.6,150.0,14.70%,29.40%,55.90%,60.0,12.0,0.538462,0.4,2.0,4.4,0.3,0.0,0.0,0.0,115.05,24.0,23.0,17.74,28.77,,,17.74,,,28.77,,,,,,,,,,,,,,,,,,,,,125.4576
1721,[106],,50.76,27.32,4.64,5.4,3.72,0.8,4.85,2.0,1.16,0.0,0.0,0.0,0.0,,280.0,,,,,1309.0,561.0,1870.0,,,126.0,8.83%,27.64%,64%,84.0,12.0,0.75,0.666667,3.1,6.7,0.4,0.0,0.0,0.0,123.7278,80.0,24.0,42.7,49.1,,39.8,42.7,45.3,,49.1,52.6,,,,,,,,,,,,,,,,,,,,167.96
1729,[106],,49.2274,26.1356,4.543646,8.32401,3.697104,0.77615,4.641551,2.1431,1.144736,0.0,0.0,0.0,0.0,14.0,280.0,,,,,1309.0,561.0,1870.0,,,126.0,8.83%,27.64%,64%,84.0,12.0,0.714286,0.666667,3.1,6.4,0.4,0.0,0.0,0.0,123.7278,80.0,24.0,49.8,52.6,,45.1,49.8,51.9,,52.6,54.9,,,,,,,,,,,,,,,,,,,,179.72